 Temperature       Hamiltonian       Magnetization       4th_order_cumulant
  0.250000     -3.000000      1.000000      0.666667     -3.000000      1.000000
  0.300000     -3.000023      1.000008      0.666667     -0.000023      0.000008
  0.350000     -3.000023      1.000008      0.666667     -0.000000      0.000000
  0.400000     -3.000023      1.000008      0.666667     -0.000000      0.000000
  0.450000     -3.000023      1.000008      0.666667      0.000000      0.000000
  0.500000     -3.000023      1.000008      0.666667      0.000000      0.000000
  0.550000     -3.000023      1.000008      0.666667      0.000000      0.000000
  0.600000     -3.000023      1.000008      0.666667      0.000000      0.000000
  0.650000     -3.000023      1.000008      0.666667      0.000000      0.000000
  0.700000     -3.000023      1.000008      0.666667      0.000000      0.000000
  0.750000     -3.000023      1.000008      0.666667      0.000000      0.000000
  0.800000     -3.000023      1.000008      0.666667      0.000000      0.000000
  0.850000     -2.999994      1.000002      0.666667      0.000030     -0.000006
  0.900000     -2.999842      0.999971      0.666666      0.000152     -0.000030
  0.950000     -2.999724      0.999948      0.666666      0.000117     -0.000023
  1.000000     -2.999771      0.999957      0.666666     -0.000047      0.000009
  1.050000     -2.999137      0.999828      0.666665      0.000634     -0.000129
  1.100000     -2.998579      0.999716      0.666664      0.000558     -0.000112
  1.150000     -2.998270      0.999656      0.666663      0.000310     -0.000060
  1.200000     -2.997718      0.999544      0.666662      0.000552     -0.000112
  1.250000     -2.995319      0.999056      0.666657      0.002399     -0.000488
  1.300000     -2.995024      0.998995      0.666655      0.000294     -0.000061
  1.350000     -2.993964      0.998783      0.666652      0.001060     -0.000212
  1.400000     -2.991639      0.998318      0.666647      0.002325     -0.000465
  1.450000     -2.988214      0.997621      0.666639      0.003425     -0.000698
  1.500000     -2.986774      0.997324      0.666635      0.001440     -0.000297
  1.550000     -2.982353      0.996446      0.666625      0.004422     -0.000878
  1.600000     -2.976429      0.995197      0.666610      0.005924     -0.001249
  1.650000     -2.971801      0.994231      0.666600      0.004628     -0.000966
  1.700000     -2.966212      0.993061      0.666588      0.005589     -0.001170
  1.750000     -2.958912      0.991447      0.666559      0.007300     -0.001614
  1.800000     -2.949662      0.989585      0.666531      0.009250     -0.001863
  1.850000     -2.941074      0.987820      0.666518      0.008589     -0.001764
  1.900000     -2.934252      0.986325      0.666471      0.006822     -0.001495
  1.950000     -2.930633      0.985529      0.666470      0.003619     -0.000797
  2.000000     -2.923873      0.984204      0.666455      0.006760     -0.001325
  2.050000     -2.912304      0.981613      0.666459      0.011570     -0.002590
  2.100000     -2.896123      0.978223      0.666405      0.016181     -0.003390
  2.150000     -2.884441      0.975482      0.666322      0.011682     -0.002742
  2.200000     -2.870112      0.972403      0.666288      0.014329     -0.003079
  2.250000     -2.860120      0.970102      0.666177      0.009992     -0.002300
  2.300000     -2.843111      0.966688      0.666272      0.017009     -0.003414
  2.350000     -2.826048      0.962705      0.666186      0.017063     -0.003983
  2.400000     -2.804554      0.957517      0.666100      0.021495     -0.005188
  2.450000     -2.791651      0.955005      0.665980      0.012903     -0.002512
  2.500000     -2.776161      0.951293      0.665984      0.015490     -0.003712
  2.550000     -2.752045      0.945209      0.665808      0.024116     -0.006084
  2.600000     -2.712605      0.936101      0.665434      0.039440     -0.009108
  2.650000     -2.679480      0.928716      0.665496      0.033124     -0.007385
  2.700000     -2.671570      0.926448      0.665387      0.007911     -0.002269
  2.750000     -2.651928      0.921542      0.665126      0.019641     -0.004905
  2.800000     -2.629291      0.916468      0.665493      0.022637     -0.005074
  2.850000     -2.592551      0.907083      0.664746      0.036740     -0.009385
  2.900000     -2.567600      0.901057      0.664781      0.024951     -0.006027
  2.950000     -2.525115      0.890120      0.664417      0.042485     -0.010937
  3.000000     -2.506712      0.885049      0.664182      0.018403     -0.005071
  3.050000     -2.464397      0.873928      0.664024      0.042315     -0.011121
  3.100000     -2.445893      0.869627      0.663524      0.018504     -0.004301
  3.150000     -2.401129      0.857413      0.662923      0.044764     -0.012214
  3.200000     -2.368104      0.849250      0.662663      0.033025     -0.008163
  3.250000     -2.341198      0.842618      0.662980      0.026906     -0.006633
  3.300000     -2.302168      0.830296      0.661253      0.039030     -0.012321
  3.350000     -2.267422      0.821145      0.661864      0.034746     -0.009152
  3.400000     -2.251721      0.816279      0.661778      0.015701     -0.004866
  3.450000     -2.205337      0.804049      0.660897      0.046384     -0.012230
  3.500000     -2.144939      0.788045      0.660273      0.060398     -0.016004
  3.550000     -2.128790      0.782681      0.659204      0.016149     -0.005364
  3.600000     -2.106261      0.775185      0.659731      0.022529     -0.007496
  3.650000     -2.044739      0.759054      0.658406      0.061522     -0.016131
  3.700000     -2.009871      0.746329      0.656435      0.034867     -0.012725
  3.750000     -1.972805      0.735081      0.657707      0.037066     -0.011249
  3.800000     -1.944219      0.728968      0.657893      0.028586     -0.006113
  3.850000     -1.909593      0.716873      0.657045      0.034627     -0.012094
  3.900000     -1.861505      0.701991      0.655934      0.048088     -0.014882
  3.950000     -1.833554      0.693001      0.655046      0.027951     -0.008990
  4.000000     -1.793525      0.681322      0.654398      0.040028     -0.011679
  4.050000     -1.723128      0.654860      0.646819      0.070398     -0.026463
  4.100000     -1.733657      0.663623      0.653181     -0.010529      0.008763
  4.150000     -1.708962      0.652078      0.648071      0.024695     -0.011545
  4.200000     -1.678805      0.643325      0.649905      0.030157     -0.008753
  4.250000     -1.604304      0.617999      0.647882      0.074501     -0.025326
  4.300000     -1.605630      0.618219      0.649462     -0.001326      0.000220
  4.350000     -1.550772      0.599939      0.645074      0.054858     -0.018279
  4.400000     -1.511648      0.584971      0.644059      0.039124     -0.014968
  4.450000     -1.529226      0.592732      0.646492     -0.017578      0.007761
  4.500000     -1.477466      0.574003      0.643307      0.051760     -0.018729
  4.550000     -1.438119      0.561090      0.639740      0.039347     -0.012913
  4.600000     -1.373512      0.537872      0.638420      0.064607     -0.023218
  4.650000     -1.376543      0.541784      0.637949     -0.003030      0.003912
  4.700000     -1.355736      0.533745      0.638936      0.020807     -0.008039
  4.750000     -1.339324      0.526586      0.634018      0.016412     -0.007159
  4.800000     -1.306812      0.517311      0.639467      0.032511     -0.009275
  4.850000     -1.266502      0.501508      0.633165      0.040311     -0.015804
  4.900000     -1.286542      0.506907      0.631251     -0.020040      0.005399
  4.950000     -1.260258      0.499910      0.631104      0.026284     -0.006997
  5.000000     -1.231988      0.488361      0.636546      0.028269     -0.011549
  5.050000     -1.200473      0.475477      0.626980      0.031516     -0.012884
  5.100000     -1.154551      0.457666      0.626519      0.045922     -0.017811
  5.150000     -1.139595      0.454824      0.620962      0.014956     -0.002842
  5.200000     -1.112061      0.443032      0.626420      0.027534     -0.011792
  5.250000     -1.100284      0.437879      0.621414      0.011777     -0.005153
  5.300000     -1.098994      0.434259      0.613916      0.001290     -0.003619
  5.350000     -1.057860      0.422879      0.621951      0.041134     -0.011381
  5.400000     -1.052343      0.420584      0.621407      0.005517     -0.002294
  5.450000     -1.057796      0.421441      0.617894     -0.005454      0.000857
  5.500000     -1.032324      0.414995      0.621666      0.025472     -0.006446
  5.550000     -0.999373      0.398677      0.607150      0.032951     -0.016318
  5.600000     -1.004726      0.401676      0.621110     -0.005354      0.002999
  5.650000     -0.966766      0.386022      0.610741      0.037960     -0.015654
  5.700000     -0.981026      0.395236      0.610230     -0.014260      0.009214
  5.750000     -0.927568      0.370609      0.602848      0.053458     -0.024626
  5.800000     -0.929908      0.373349      0.603397     -0.002339      0.002739
  5.850000     -0.926930      0.369525      0.598065      0.002978     -0.003824
  5.900000     -0.905567      0.363201      0.607421      0.021363     -0.006323
  5.950000     -0.874337      0.351227      0.596505      0.031231     -0.011974
  6.000000     -0.877367      0.349651      0.595412     -0.003031     -0.001576
  6.050000     -0.852014      0.344799      0.593637      0.025353     -0.004852
  6.100000     -0.858859      0.346006      0.594315     -0.006845      0.001207
  6.150000     -0.830581      0.332672      0.599465      0.028278     -0.013333
  6.200000     -0.829577      0.335676      0.583824      0.001004      0.003004
  6.250000     -0.802867      0.323101      0.578439      0.026710     -0.012575
  6.300000     -0.817353      0.328554      0.598442     -0.014486      0.005453
  6.350000     -0.769446      0.311150      0.586512      0.047907     -0.017404
  6.400000     -0.783918      0.313668      0.592928     -0.014472      0.002518
  6.450000     -0.804788      0.325650      0.573676     -0.020870      0.011981
  6.500000     -0.768539      0.308831      0.570550      0.036250     -0.016819
  6.550000     -0.752428      0.303944      0.582338      0.016110     -0.004887
  6.600000     -0.763077      0.310263      0.579951     -0.010649      0.006319
  6.650000     -0.760323      0.306020      0.583560      0.002754     -0.004243
  6.700000     -0.717121      0.287923      0.572705      0.043201     -0.018097
  6.750000     -0.717175      0.290404      0.577689     -0.000054      0.002481
  6.800000     -0.699726      0.277833      0.568596      0.017449     -0.012571
  6.850000     -0.688031      0.274346      0.553026      0.011695     -0.003488
  6.900000     -0.702059      0.283441      0.563099     -0.014028      0.009096
  6.950000     -0.703398      0.283369      0.566629     -0.001339     -0.000073
  7.000000     -0.663721      0.265857      0.556987      0.039677     -0.017511
  7.050000     -0.680518      0.276746      0.569325     -0.016797      0.010889
  7.100000     -0.652353      0.260783      0.547622      0.028165     -0.015962
  7.150000     -0.661133      0.263242      0.561774     -0.008779      0.002459
  7.200000     -0.658938      0.264141      0.556732      0.002195      0.000898
  7.250000     -0.625298      0.245491      0.537165      0.033640     -0.018650
  7.300000     -0.642713      0.255745      0.557426     -0.017415      0.010255
  7.350000     -0.643531      0.258980      0.562152     -0.000818      0.003235
  7.400000     -0.617940      0.246719      0.534331      0.025591     -0.012262
  7.450000     -0.616302      0.247791      0.552710      0.001637      0.001072
  7.500000     -0.621941      0.247146      0.544485     -0.005639     -0.000645
  7.550000     -0.590002      0.233130      0.532930      0.031940     -0.014015
  7.600000     -0.585760      0.230756      0.530898      0.004241     -0.002374
  7.650000     -0.593963      0.239981      0.545081     -0.008203      0.009225
  7.700000     -0.602135      0.240742      0.537905     -0.008172      0.000762
  7.750000     -0.566506      0.223646      0.534905      0.035629     -0.017096
  7.800000     -0.578288      0.229593      0.535984     -0.011782      0.005947
  7.850000     -0.595051      0.241400      0.559679     -0.016764      0.011807
  7.900000     -0.541907      0.211152      0.512444      0.053144     -0.030248
  7.950000     -0.564437      0.224317      0.524972     -0.022530      0.013165
  8.000000     -0.558122      0.225315      0.534179      0.006316      0.000998
  8.050000     -0.542668      0.216706      0.517760      0.015454     -0.008609
  8.100000     -0.545070      0.216782      0.510959     -0.002403      0.000076
  8.150001     -0.537263      0.212647      0.505882      0.007807     -0.004135
  8.200000     -0.527513      0.209876      0.501110      0.009750     -0.002771
  8.250000     -0.522795      0.207981      0.507366      0.004718     -0.001896
  8.300000     -0.507398      0.199836      0.506009      0.015397     -0.008144
  8.350000     -0.515761      0.203937      0.505877     -0.008364      0.004101
  8.400001     -0.510659      0.200426      0.491993      0.005103     -0.003511
  8.450000     -0.491914      0.192014      0.491255      0.018745     -0.008411
  8.500000     -0.507309      0.200772      0.520567     -0.015395      0.008758
  8.550000     -0.521363      0.209846      0.525974     -0.014054      0.009074
  8.600000     -0.497049      0.198954      0.511621      0.024313     -0.010892
  8.650001     -0.501684      0.199688      0.520795     -0.004635      0.000733
  8.700000     -0.487060      0.193651      0.466314      0.014624     -0.006037
  8.750000     -0.482561      0.189309      0.489181      0.004499     -0.004342
  8.800000     -0.474775      0.189602      0.473585      0.007786      0.000293
  8.850000     -0.454352      0.175091      0.457823      0.020424     -0.014511
  8.900001     -0.475513      0.186805      0.480987     -0.021162      0.011715
  8.950000     -0.454277      0.179703      0.464595      0.021236     -0.007102
  9.000000     -0.465699      0.183385      0.493706     -0.011422      0.003682
  9.050000     -0.478632      0.188350      0.495021     -0.012933      0.004965
  9.100000     -0.445820      0.173798      0.448441      0.032812     -0.014552
  9.150001     -0.458302      0.180630      0.458587     -0.012482      0.006832
  9.200000     -0.461360      0.178233      0.474884     -0.003058     -0.002397
  9.250000     -0.438274      0.171588      0.458343      0.023087     -0.006645
  9.300000     -0.429529      0.162511      0.440913      0.008745     -0.009077
  9.350000     -0.435428      0.172032      0.464993     -0.005900      0.009521
  9.400001     -0.427655      0.168922      0.473693      0.007774     -0.003111
  9.450000     -0.430979      0.168986      0.477361     -0.003325      0.000065
  9.500000     -0.435760      0.173780      0.446880     -0.004781      0.004794
  9.550000     -0.417840      0.162725      0.453497      0.017920     -0.011056
  9.600000     -0.413245      0.162735      0.446735      0.004595      0.000010
  9.650001     -0.423664      0.167291      0.452843     -0.010419      0.004556
  9.700000     -0.425554      0.168988      0.473034     -0.001890      0.001697
  9.750000     -0.418472      0.166437      0.477246      0.007082     -0.002552
  9.800000     -0.392801      0.150111      0.431830      0.025671     -0.016325
  9.850000     -0.417073      0.163617      0.457086     -0.024272      0.013506
  9.900001     -0.402821      0.157861      0.454152      0.014252     -0.005757
  9.950000     -0.415998      0.164882      0.446238     -0.013176      0.007021
 10.000000     -0.403990      0.157075      0.435949      0.012007     -0.007807
